
Day fraction since midnight on 	Photometer (mg/L)	Source pressure (Pa)
start
0.6033566106	-5.7386112213	0.0000000000
0.6034144852	-5.7389431000	0.0000000000
0.6034722626	-5.7392010689	0.0000000000
0.6035301694	-5.7392621040	0.0000000000
0.6035880652	-5.7392110825	0.0000000000
0.6036459491	-5.7392997742	0.0000000000
0.6037038338	-5.7394337654	0.0000000000
0.6037616398	-5.7394084930	0.0000000000
0.6038195387	-5.7394723892	0.0000000000
0.6038773718	-5.7395119667	0.0000000000
0.6039352094	-5.7394146919	0.0000000000
0.6039931492	-5.7393922806	0.0000000000
0.6040510908	-5.7389163971	0.0000000000
0.6041089264	-5.7380552292	0.0000000000
0.6041668210	-5.7368135452	0.0000000000
0.6042245908	-5.3676638603	0.0000000000
0.6042824842	-4.7504181862	0.0000000000
0.6043403651	-5.7313137054	0.0000000000
0.6043982567	-5.7317585945	0.0000000000
0.6044561588	-5.7312593460	0.0000000000
0.6045139964	-4.7491512299	0.0000000000
0.6045718726	-4.7009282112	0.0000000000
0.6046297311	-4.8760251999	0.0000000000
0.6046876078	-4.9407267570	0.0000000000
0.6047454645	-4.5803384781	0.0000000000
0.6048033359	-5.4928283691	0.0000000000
0.6048612313	-5.6713228226	0.0000000000
0.6049191018	-5.5063304901	0.0000000000
0.6049769864	-5.0972962379	0.0000000000
0.6050348122	-4.7627987862	0.0000000000
0.6050926902	-4.4162588120	0.0000000000
0.6051505105	-4.1448197365	0.0000000000
0.6052084196	-3.9363265038	0.0000000000
0.6052662504	-3.9619989395	0.0000000000
0.6053241858	-4.1253619194	0.0000000000
0.6053819963	-4.3549075127	0.0000000000
0.6054398869	-3.5564489365	0.0000000000
0.6054977888	-3.5217986107	0.0000000000
0.6055555994	-4.0207953453	0.0000000000
0.6056135099	-3.8776972294	0.0000000000
0.6056714113	-3.4951779842	0.0000000000
0.6057292826	-2.9932692051	0.0000000000
0.6057870864	-1.6282182932	0.0000000000
0.6058450045	0.3742269278	0.0000000000
0.6059029303	2.5390458107	0.0000000000
0.6059607804	4.8813853264	0.0000000000
0.6060186346	8.3515748978	0.0000000000
0.6060764679	11.7113523483	0.0000000000
0.6061343336	15.0685625076	0.0000000000
0.6061922482	17.9320430756	0.0000000000
0.6062501147	20.6975917816	0.0000000000
0.6063079847	22.9162826538	0.0000000000
0.6063657947	25.1673622131	0.0000000000
0.6064237143	26.8970909119	0.0000000000
0.6064816693	28.6017417908	0.0000000000
0.6065393940	29.9604473114	0.0000000000
0.6065973502	31.3173522949	0.0000000000
0.6066552405	32.3657264709	0.0000000000
0.6067130665	33.3852233887	0.0000000000
0.6067709072	34.1248664856	0.0000000000
0.6068288470	34.9480285645	0.0000000000
0.6068867514	35.6256141663	0.0000000000
0.6069445141	36.3352851868	0.0000000000
0.6070023909	36.8681221008	0.0000000000
0.6070603131	37.4855690002	0.0000000000
0.6071181989	38.0573539734	0.0000000000
0.6071760944	38.5631408691	0.0000000000
0.6072339500	38.9731063843	0.0000000000
0.6072917752	39.4727630615	0.0000000000
0.6073496571	39.7979850769	0.0000000000
0.6074075578	40.1947441101	0.0000000000
0.6074654176	40.4800071716	0.0000000000
0.6075233180	40.8117599487	0.0000000000
0.6075811007	40.9594306946	0.0000000000
0.6076389780	41.2382621765	0.0000000000
0.6076968234	41.4492454529	0.0000000000
0.6077547052	42.0755653381	0.0000000000
0.6078126013	41.6924285889	0.0000000000
0.6078705122	41.4356307983	0.0000000000
0.6079283650	41.6883430481	0.0000000000
0.6079862536	42.0510787964	0.0000000000
0.6080440613	42.2574615479	0.0000000000
0.6081019675	42.4936790466	0.0000000000
0.6081598675	42.7143783569	0.0000000000
0.6082176548	42.8627700806	0.0000000000
0.6082756072	42.9442291260	0.0000000000
0.6083334417	43.0736579895	0.0000000000
0.6083912935	43.1708602905	0.0000000000
0.6084491963	43.3187103271	0.0000000000
0.6085070977	43.4246635437	0.0000000000
0.6085648868	43.5549545288	0.0000000000
0.6086227574	43.6291275024	0.0000000000
0.6086806672	44.0905265808	0.0000000000
0.6087385857	43.8463439941	0.0000000000
0.6087963646	43.8252677917	0.0000000000
0.6088542243	43.8571052551	0.0000000000
0.6089121104	43.8974151611	0.0000000000
0.6089699724	43.9305725098	0.0000000000
0.6090279199	43.9819641113	0.0000000000
0.6090857746	44.0225486755	0.0000000000
0.6091435776	44.0686149597	0.0000000000
0.6092014538	44.1177444458	0.0000000000
0.6092593547	44.1871681213	0.0000000000
0.6093172691	44.2448081970	0.0000000000
0.6093751287	45.1923370361	0.0000000000
0.6094330307	44.2251129150	0.0000000000
0.6094908566	44.0919647217	0.0000000000
0.6095487004	44.1908836365	0.0000000000
0.6096065453	44.2549896240	0.0000000000
0.6096644783	44.3403244019	0.0000000000
0.6097222781	44.4078865051	0.0000000000
0.6097801478	44.4403533936	0.0000000000
0.6098380358	44.4700279236	0.0000000000
0.6098959103	44.5361595154	0.0000000000
0.6099538100	44.5832862854	0.0000000000
0.6100116734	44.6111297607	0.0000000000
0.6100695778	44.6632041931	0.0000000000
