Day fraction since midnight on 	Accumulator pressure (Pa)	DO probe (mg/L)	Lab Air supply pressure (Pa)	air valve control ()	Max calibration pressure (Pa)	source pressure (Pa)	Max calibration pressure ()	Delta P ()	air flow rate(R * T )/ V ()	Fill time (s)	air fill model (Pa)
0.6659423546	6760.2192382813	5.3183550835	23161.9218750000	0.7106771382	20845.7296875000	23161.9218750000	20845.7296875000	10845.7296875000	1963.2000000000	5.5245159370	20845.7296875000
0.6659539530	6773.8540039063	5.3100547791	23059.6035156250	0.7109808520	20845.7296875000	23161.9218750000	20845.7296875000	10845.7296875000	1963.2000000000	5.5245159370	20845.7296875000
0.6659655032	6913.1445312500	5.3031725883	23059.6035156250	0.7164621979	20753.6431640625	23059.6035156250	20753.6431640625	10753.6431640625	1963.2000000000	5.4776095986	20753.6431640625
0.6659770640	6786.8974609375	5.3031578064	23059.6035156250	0.7154593793	20753.6431640625	23059.6035156250	20753.6431640625	10753.6431640625	1963.2000000000	5.4776095986	20753.6431640625
0.6659886488	6749.3876953125	5.3000726700	23059.6035156250	0.7123161493	20753.6431640625	23059.6035156250	20753.6431640625	10753.6431640625	1963.2000000000	5.4776095986	20753.6431640625
0.6660002095	6717.6606445313	5.2900495529	23059.6035156250	0.7124745931	20753.6431640625	23059.6035156250	20753.6431640625	10753.6431640625	1963.2000000000	5.4776095986	20753.6431640625
0.6660117120	6665.2919921875	5.2832446098	23059.6035156250	0.7127621866	20753.6431640625	23059.6035156250	20753.6431640625	10753.6431640625	1963.2000000000	5.4776095986	20753.6431640625
0.6660233724	6718.8505859375	5.2722849846	22997.4882812500	0.7161052622	20697.7394531250	22997.4882812500	20697.7394531250	10697.7394531250	1963.2000000000	5.4491337883	20697.7394531250
0.6660349434	6746.6875000000	5.2587966919	22997.4882812500	0.7156880497	20697.7394531250	22997.4882812500	20697.7394531250	10697.7394531250	1963.2000000000	5.4491337883	20697.7394531250
0.6660465038	6808.8144531250	5.2539615631	22997.4882812500	0.7133060460	20697.7394531250	22997.4882812500	20697.7394531250	10697.7394531250	1963.2000000000	5.4491337883	20697.7394531250
0.6660580770	6713.4829101563	5.2361698151	22997.4882812500	0.7132595113	20697.7394531250	22997.4882812500	20697.7394531250	10697.7394531250	1963.2000000000	5.4491337883	20697.7394531250
0.6660695788	6584.2426757813	5.2366538048	22997.4882812500	0.7116838959	20697.7394531250	22997.4882812500	20697.7394531250	10697.7394531250	1963.2000000000	5.4491337883	20697.7394531250
0.6660812427	6646.5546875000	5.2299313545	22878.8906250000	0.7164796537	20591.0015625000	22878.8906250000	20591.0015625000	10591.0015625000	1963.2000000000	5.3947644471	20591.0015625000
0.6660928286	6628.9140625000	5.2223253250	22878.8906250000	0.7177134891	20591.0015625000	22878.8906250000	20591.0015625000	10591.0015625000	1963.2000000000	5.3947644471	20591.0015625000
0.6661043911	6489.4462890625	5.2203955650	22878.8906250000	0.7110862980	20591.0015625000	22878.8906250000	20591.0015625000	10591.0015625000	1963.2000000000	5.3947644471	20591.0015625000
0.6661158960	6632.6362304688	5.2074713707	22878.8906250000	0.7170706190	20591.0015625000	22878.8906250000	20591.0015625000	10591.0015625000	1963.2000000000	5.3947644471	20591.0015625000
0.6661275433	6588.2182617188	5.2100415230	22878.8906250000	0.7135763357	20591.0015625000	22878.8906250000	20591.0015625000	10591.0015625000	1963.2000000000	5.3947644471	20591.0015625000
0.6661390952	6747.4331054688	5.2020754814	22878.8906250000	0.7190388953	20591.0015625000	22878.8906250000	20591.0015625000	10591.0015625000	1963.2000000000	5.3947644471	20591.0015625000
0.6661507053	6725.2255859375	5.1922979355	22878.8906250000	0.7172688908	20591.0015625000	22878.8906250000	20591.0015625000	10591.0015625000	1963.2000000000	5.3947644471	20591.0015625000
0.6661622594	6717.2309570313	5.1989908218	22878.8906250000	0.7165887358	20591.0015625000	22878.8906250000	20591.0015625000	10591.0015625000	1963.2000000000	5.3947644471	20591.0015625000
Day fraction since midnight on 	Accumulator pressure (Pa)	DO probe (mg/L)	Lab Air supply pressure (Pa)	air valve control ()	Max calibration pressure (Pa)	source pressure (Pa)	Max calibration pressure ()	Delta P ()	air flow rate(R * T )/ V ()	Fill time (s)	air fill model (Pa)
0.6663937173	6396.6376953125	5.0690927505	22681.2851562500	0.7148395031	20413.1566406250	22681.2851562500	20413.1566406250	10413.1566406250	1963.2000000000	5.3041751429	20413.1566406250
0.6664515911	6376.7900390625	5.0387773514	22612.6542968750	0.7174710099	20351.3888671875	22612.6542968750	20351.3888671875	10351.3888671875	1963.2000000000	5.2727123407	20351.3888671875
0.6665094336	6401.1494140625	5.0183520317	22599.3925781250	0.7170126669	20339.4533203125	22599.3925781250	20339.4533203125	10339.4533203125	1963.2000000000	5.2666327019	20339.4533203125
0.6665672151	6319.4482421875	4.9793810844	22579.3945312500	0.7147307492	20321.4550781250	22579.3945312500	20321.4550781250	10321.4550781250	1963.2000000000	5.2574648931	20321.4550781250
0.6666252080	6258.9487304688	4.9545607567	22573.6816406250	0.7181114110	20316.3134765625	22573.6816406250	20316.3134765625	10316.3134765625	1963.2000000000	5.2548459029	20316.3134765625
0.6666830908	6231.8696289063	4.9336380959	22565.5546875000	0.7155325963	20308.9992187500	22565.5546875000	20308.9992187500	10308.9992187500	1963.2000000000	5.2511202214	10000.0000000000
0.6667409741	7389.9956054688	4.9105763435	22527.0195312500	0.7582593584	20274.3175781250	22527.0195312500	20274.3175781250	10274.3175781250	1963.2000000000	5.2334543491	19801.7512153626
start
0.6667988421	8463.2177734375	4.8480129242	22480.2597656250	0.7749559145	20232.2337890625	22480.2597656250	20232.2337890625	10232.2337890625	1963.2000000000	5.2120180262	20232.2337890625
0.6668566933	8835.2021484375	4.9443230629	21876.2441406250	0.8011990911	19688.6197265625	21876.2441406250	19688.6197265625	9688.6197265625	1963.2000000000	4.9351159976	19688.6197265625
0.6669145552	8964.6777343750	5.0963826180	21433.1875000000	0.8151233808	19289.8687500000	21433.1875000000	19289.8687500000	9289.8687500000	1963.2000000000	4.7320032345	19289.8687500000
0.6669724200	9000.0390625000	5.2711801529	21433.1875000000	0.8116537078	19289.8687500000	21433.1875000000	19289.8687500000	9289.8687500000	1963.2000000000	4.7320032345	19289.8687500000
0.6670302855	9168.4716796875	5.4383153915	21244.4003906250	0.8386249756	19119.9603515625	21244.4003906250	19119.9603515625	9119.9603515625	1963.2000000000	4.6454565768	19119.9603515625
0.6670881589	9580.6621093750	5.5861611366	21262.4960937500	0.8463027618	19136.2464843750	21262.4960937500	19136.2464843750	9136.2464843750	1963.2000000000	4.6537522842	19136.2464843750
0.6671460261	9708.0605468750	5.7276887894	21256.1171875000	0.8408256367	19130.5054687500	21256.1171875000	19130.5054687500	9130.5054687500	1963.2000000000	4.6508279690	19130.5054687500
0.6672039100	9669.0810546875	5.8685970306	21203.5644531250	0.8499347774	19083.2080078125	21203.5644531250	19083.2080078125	9083.2080078125	1963.2000000000	4.6267359453	19083.2080078125
0.6672617879	9790.4521484375	6.0112385750	21213.3164062500	0.8507146252	19091.9847656250	21213.3164062500	19091.9847656250	9091.9847656250	1963.2000000000	4.6312065840	19091.9847656250
0.6673196577	9832.6845703125	6.1471590996	21206.5039062500	0.8516850431	19085.8535156250	21206.5039062500	19085.8535156250	9085.8535156250	1963.2000000000	4.6280834941	19085.8535156250
0.6673775135	9832.6923828125	6.2855401039	21175.1855468750	0.8527654856	19057.6669921875	21175.1855468750	19057.6669921875	9057.6669921875	1963.2000000000	4.6137260555	19057.6669921875
0.6674353912	9621.8300781250	6.3825383186	21185.1386718750	0.8416523612	19066.6248046875	21185.1386718750	19066.6248046875	9066.6248046875	1963.2000000000	4.6182889184	19066.6248046875
0.6674932519	9700.6640625000	6.4873614311	21152.2207031250	0.8508261864	19036.9986328125	21152.2207031250	19036.9986328125	9036.9986328125	1963.2000000000	4.6031981626	19036.9986328125
0.6675511155	9869.9111328125	6.6006994247	21182.1699218750	0.8559657656	19063.9529296875	21182.1699218750	19063.9529296875	9063.9529296875	1963.2000000000	4.6169279389	19063.9529296875
0.6676089981	9817.3896484375	6.7166290283	21192.6679687500	0.8592412408	19073.4011718750	21192.6679687500	19073.4011718750	9073.4011718750	1963.2000000000	4.6217406132	19073.4011718750
0.6676668745	9853.5673828125	6.8146810532	21167.3457031250	0.8526355461	19050.6111328125	21167.3457031250	19050.6111328125	9050.6111328125	1963.2000000000	4.6101319951	19050.6111328125
0.6677247538	9835.0458984375	6.9012689590	21155.0605468750	0.8550922875	19039.5544921875	21155.0605468750	19039.5544921875	9039.5544921875	1963.2000000000	4.6045000470	19039.5544921875
0.6677826058	9853.4550781250	6.9804635048	21146.0488281250	0.8603635542	19031.4439453125	21146.0488281250	19031.4439453125	9031.4439453125	1963.2000000000	4.6003687578	19031.4439453125
0.6678404678	9826.1630859375	7.0405268669	21129.8535156250	0.8563864875	19016.8681640625	21129.8535156250	19016.8681640625	9016.8681640625	1963.2000000000	4.5929442563	19016.8681640625
0.6678983453	9806.2060546875	7.1452431679	21131.1503906250	0.8530122307	19018.0353515625	21131.1503906250	19018.0353515625	9018.0353515625	1963.2000000000	4.5935387895	19018.0353515625
0.6679562042	9807.6132812500	7.2548303604	21141.1523437500	0.8549222408	19027.0371093750	21141.1523437500	19027.0371093750	9027.0371093750	1963.2000000000	4.5981240370	19027.0371093750
0.6680140910	9820.0253906250	7.3375515938	21126.0332031250	0.8534366823	19013.4298828125	21126.0332031250	19013.4298828125	9013.4298828125	1963.2000000000	4.5911928906	19013.4298828125
0.6680719406	9692.0605468750	7.3958067894	21124.2792968750	0.8422259503	19011.8513671875	21124.2792968750	19011.8513671875	9011.8513671875	1963.2000000000	4.5903888382	19011.8513671875
0.6681298123	9377.4169921875	7.4594974518	21101.0449218750	0.8404103296	18990.9404296875	21101.0449218750	18990.9404296875	8990.9404296875	1963.2000000000	4.5797373827	18990.9404296875
0.6681876942	9229.7402343750	7.5392141342	21152.0097656250	0.8304275481	19036.8087890625	21152.0097656250	19036.8087890625	9036.8087890625	1963.2000000000	4.6031014614	19036.8087890625
0.6682455553	9253.4482421875	7.6058454514	21152.6445312500	0.8328000920	19037.3800781250	21152.6445312500	19037.3800781250	9037.3800781250	1963.2000000000	4.6033924603	19037.3800781250
0.6683034087	9174.5136718750	7.6342968941	21178.7109375000	0.8288628873	19060.8398437500	21178.7109375000	19060.8398437500	9060.8398437500	1963.2000000000	4.6153422187	19060.8398437500
0.6683612923	9210.5585937500	7.7021479607	21176.2695312500	0.8330147545	19058.6425781250	21176.2695312500	19058.6425781250	9058.6425781250	1963.2000000000	4.6142229921	19058.6425781250
0.6684191635	9496.6953125000	7.7512021065	21151.7929687500	0.8476121082	19036.6136718750	21151.7929687500	19036.6136718750	9036.6136718750	1963.2000000000	4.6030020741	19036.6136718750
0.6684770413	9679.9101562500	7.7973465919	21162.2246093750	0.8525511464	19046.0021484375	21162.2246093750	19046.0021484375	9046.0021484375	1963.2000000000	4.6077843054	19046.0021484375
0.6685348979	9716.7226562500	7.8454189301	21162.6894531250	0.8481652666	19046.4205078125	21162.6894531250	19046.4205078125	9046.4205078125	1963.2000000000	4.6079974062	19046.4205078125
0.6685927705	9700.4912109375	7.9042110443	21114.5390625000	0.8555195905	19003.0851562500	21114.5390625000	19003.0851562500	9003.0851562500	1963.2000000000	4.5859235718	19003.0851562500
0.6686506469	9708.9531250000	7.9248642921	21086.4218750000	0.8515817994	18977.7796875000	21086.4218750000	18977.7796875000	8977.7796875000	1963.2000000000	4.5730336632	18977.7796875000
0.6687085051	9736.6757812500	7.9755311012	21061.7460937500	0.8552852251	18955.5714843750	21061.7460937500	18955.5714843750	8955.5714843750	1963.2000000000	4.5617214162	18955.5714843750
0.6687663898	9719.1435546875	8.0127840042	21026.1933593750	0.8547314840	18923.5740234375	21026.1933593750	18923.5740234375	8923.5740234375	1963.2000000000	4.5454227911	18923.5740234375
0.6688242545	9753.7431640625	8.0746107101	21031.3574218750	0.8572213904	18928.2216796875	21031.3574218750	18928.2216796875	8928.2216796875	1963.2000000000	4.5477901791	18928.2216796875
0.6688821158	9701.2656250000	8.1067867279	21028.1093750000	0.8564004812	18925.2984375000	21028.1093750000	18925.2984375000	8925.2984375000	1963.2000000000	4.5463011601	18925.2984375000
0.6689399938	9714.0312500000	8.1360702515	20987.0214843750	0.8589285518	18888.3193359375	20987.0214843750	18888.3193359375	8888.3193359375	1963.2000000000	4.5274650244	18888.3193359375
0.6689978457	9729.9423828125	8.1798353195	21004.9433593750	0.8540829017	18904.4490234375	21004.9433593750	18904.4490234375	8904.4490234375	1963.2000000000	4.5356810429	18904.4490234375
0.6690557406	9698.4208984375	8.2060642242	20973.7343750000	0.8545772191	18876.3609375000	20973.7343750000	18876.3609375000	8876.3609375000	1963.2000000000	4.5213737457	18876.3609375000
0.6691136197	9744.7607421875	8.2585868835	20963.7792968750	0.8587273083	18867.4013671875	20963.7792968750	18867.4013671875	8867.4013671875	1963.2000000000	4.5168099874	18867.4013671875
0.6691714716	9767.6542968750	8.2595834732	20979.3613281250	0.8596845071	18881.4251953125	20979.3613281250	18881.4251953125	8881.4251953125	1963.2000000000	4.5239533391	18881.4251953125
0.6692293560	9838.9863281250	8.2835226059	21078.7949218750	0.8616715497	18970.9154296875	21078.7949218750	18970.9154296875	8970.9154296875	1963.2000000000	4.5695371993	18970.9154296875
0.6692871994	9849.2226562500	8.3076620102	21168.6152343750	0.8556782566	19051.7537109375	21168.6152343750	19051.7537109375	9051.7537109375	1963.2000000000	4.6107139929	19051.7537109375
0.6693450632	9955.9160156250	8.3405122757	21318.2675781250	0.8552987482	19186.4408203125	21318.2675781250	19186.4408203125	9186.4408203125	1963.2000000000	4.6793198962	19186.4408203125
0.6694029452	9957.8681640625	8.3627033234	21455.8535156250	0.8494569328	19310.2681640625	21455.8535156250	19310.2681640625	9310.2681640625	1963.2000000000	4.7423941341	19310.2681640625
0.6694608269	9968.6210937500	8.4038257599	21561.1601562500	0.8454793879	19405.0441406250	21561.1601562500	19405.0441406250	9405.0441406250	1963.2000000000	4.7906704058	19405.0441406250
0.6695186862	10038.8291015625	8.4460391998	21691.6562500000	0.8394762250	19522.4906250000	21691.6562500000	19522.4906250000	9522.4906250000	1963.2000000000	4.8504944096	19522.4906250000
0.6695765589	10070.2578125000	8.4638700485	21798.1718750000	0.8342105898	19618.3546875000	21798.1718750000	19618.3546875000	9618.3546875000	1963.2000000000	4.8993249223	19618.3546875000
0.6696344124	10037.6650390625	8.4556035995	21916.6953125000	0.8353431264	19725.0257812500	21916.6953125000	19725.0257812500	9725.0257812500	1963.2000000000	4.9536602390	19725.0257812500
0.6696922995	10091.6855468750	8.4944133759	21983.1074218750	0.8328536004	19784.7966796875	21983.1074218750	19784.7966796875	9784.7966796875	1963.2000000000	4.9841058882	19784.7966796875
0.6697501680	10152.7705078125	8.5095682144	21943.7187500000	0.8342024131	19749.3468750000	21943.7187500000	19749.3468750000	9749.3468750000	1963.2000000000	4.9660487342	19749.3468750000
0.6698080201	10156.3955078125	8.5296039581	22052.0039062500	0.8340426787	19846.8035156250	22052.0039062500	19846.8035156250	9846.8035156250	1963.2000000000	5.0156904623	19846.8035156250
0.6698659073	9981.2343750000	8.5524768829	22168.3164062500	0.8173898986	19951.4847656250	22168.3164062500	19951.4847656250	9951.4847656250	1963.2000000000	5.0690122074	19951.4847656250
0.6699237514	9743.4277343750	8.5583915710	22233.4628906250	0.8125586107	20010.1166015625	22233.4628906250	20010.1166015625	10010.1166015625	1963.2000000000	5.0988776495	20010.1166015625
0.6699816357	9641.0195312500	8.5843820572	22318.1855468750	0.8094250127	20086.3669921875	22318.1855468750	20086.3669921875	10086.3669921875	1963.2000000000	5.1377174981	20086.3669921875
0.6700394548	9652.5527343750	8.5999279022	22428.4550781250	0.8038339830	20185.6095703125	22428.4550781250	20185.6095703125	10185.6095703125	1963.2000000000	5.1882689335	20185.6095703125
0.6700973745	9666.1171875000	8.6262760162	22477.7207031250	0.8006859208	20229.9486328125	22477.7207031250	20229.9486328125	10229.9486328125	1963.2000000000	5.2108540306	20229.9486328125
0.6701552253	9663.9541015625	8.6189479828	22512.9746093750	0.7986967447	20261.6771484375	22512.9746093750	20261.6771484375	10261.6771484375	1963.2000000000	5.2270156624	20261.6771484375
0.6702131183	9677.2792968750	8.6252012253	22586.8164062500	0.7994852750	20328.1347656250	22586.8164062500	20328.1347656250	10328.1347656250	1963.2000000000	5.2608673419	20328.1347656250
0.6702709786	9703.4208984375	8.6729745865	22594.2324218750	0.7979624427	20334.8091796875	22594.2324218750	20334.8091796875	10334.8091796875	1963.2000000000	5.2642671046	20334.8091796875
0.6703287642	9690.8476562500	8.6832227707	22594.8632812500	0.7979413496	20335.3769531250	22594.8632812500	20335.3769531250	10335.3769531250	1963.2000000000	5.2645563127	20335.3769531250
0.6703867199	9713.9902343750	8.6856021881	22626.2050781250	0.7998724043	20363.5845703125	22626.2050781250	20363.5845703125	10363.5845703125	1963.2000000000	5.2789244959	20363.5845703125
0.6704446037	9655.4130859375	8.6861705780	22626.2050781250	0.7979510488	20363.5845703125	22626.2050781250	20363.5845703125	10363.5845703125	1963.2000000000	5.2789244959	20363.5845703125
0.6705024581	9703.0195312500	8.6948204041	22657.9472656250	0.7998823287	20392.1525390625	22657.9472656250	20392.1525390625	10392.1525390625	1963.2000000000	5.2934762322	20392.1525390625
0.6705603398	9819.4765625000	8.7103166580	22666.2500000000	0.8065183183	20399.6250000000	22666.2500000000	20399.6250000000	10399.6250000000	1963.2000000000	5.2972824980	20399.6250000000
0.6706181957	9882.7177734375	8.7347888947	22699.0253906250	0.8068339926	20429.1228515625	22699.0253906250	20429.1228515625	10429.1228515625	1963.2000000000	5.3123078910	20429.1228515625
0.6706760799	9984.0478515625	8.7697782516	22891.4140625000	0.7994642442	20602.2726562500	22891.4140625000	20602.2726562500	10602.2726562500	1963.2000000000	5.4005056317	20602.2726562500
0.6707339397	10022.0820312500	8.7414464951	23044.5312500000	0.7952493782	20740.0781250000	23044.5312500000	20740.0781250000	10740.0781250000	1963.2000000000	5.4706999414	20740.0781250000
0.6707918113	10071.7265625000	8.7434148788	23114.7714843750	0.7959056089	20803.2943359375	23114.7714843750	20803.2943359375	10803.2943359375	1963.2000000000	5.5029005379	20803.2943359375
0.6708496862	9896.7294921875	8.7672319412	23146.9218750000	0.7821296736	20832.2296875000	23146.9218750000	20832.2296875000	10832.2296875000	1963.2000000000	5.5176394089	20832.2296875000
0.6709075488	10014.5117187500	8.7745075226	23169.3261718750	0.7871063015	20852.3935546875	23169.3261718750	20852.3935546875	10852.3935546875	1963.2000000000	5.5279103274	20852.3935546875
0.6709654076	10098.7392578125	8.7780056000	23204.6210937500	0.7920445793	20884.1589843750	23204.6210937500	20884.1589843750	10884.1589843750	1963.2000000000	5.5440907622	20884.1589843750
0.6710232817	10204.8554687500	8.7736158371	23204.0898437500	0.7933376191	20883.6808593750	23204.0898437500	20883.6808593750	10883.6808593750	1963.2000000000	5.5438472185	20883.6808593750
0.6710811489	10151.4960937500	8.7958164215	23198.7734375000	0.7896127960	20878.8960937500	23198.7734375000	20878.8960937500	10878.8960937500	1963.2000000000	5.5414099907	20878.8960937500
0.6711390216	10221.2158203125	8.8023624420	23166.0761718750	0.7937949814	20849.4685546875	23166.0761718750	20849.4685546875	10849.4685546875	1963.2000000000	5.5264204129	20849.4685546875
0.6711968817	10216.8222656250	8.8198490143	23126.6933593750	0.7975673133	20814.0240234375	23126.6933593750	20814.0240234375	10814.0240234375	1963.2000000000	5.5083659451	20814.0240234375
0.6712547838	10179.6826171875	8.8353137970	23142.2597656250	0.7932493043	20828.0337890625	23142.2597656250	20828.0337890625	10828.0337890625	1963.2000000000	5.5155021338	20828.0337890625
0.6713126271	10163.9804687500	8.8470478058	23010.4648437500	0.7988109387	20709.4183593750	23010.4648437500	20709.4183593750	10709.4183593750	1963.2000000000	5.4550827014	20709.4183593750
0.6713705183	10115.3916015625	8.8260335922	22766.0859375000	0.8085833605	20489.4773437500	22766.0859375000	20489.4773437500	10489.4773437500	1963.2000000000	5.3430508067	20489.4773437500
0.6714283604	10052.4140625000	8.7558393478	22647.7246093750	0.8032753706	20382.9521484375	22647.7246093750	20382.9521484375	10382.9521484375	1963.2000000000	5.2887898067	20382.9521484375
0.6714862344	9897.4355468750	8.6536712646	22527.2949218750	0.8066819985	20274.5654296875	22527.2949218750	20274.5654296875	10274.5654296875	1963.2000000000	5.2335805978	20274.5654296875
0.6715441153	9977.8378906250	8.6093778610	21997.7968750000	0.8370447964	19798.0171875000	21997.7968750000	19798.0171875000	9798.0171875000	1963.2000000000	4.9908400507	19798.0171875000
0.6716019949	10249.9677734375	8.6150388718	21484.3164062500	0.8589266009	19335.8847656250	21484.3164062500	19335.8847656250	9335.8847656250	1963.2000000000	4.7554425253	19335.8847656250
0.6716598245	10356.7460937500	8.6107797623	21355.0195312500	0.8690107276	19219.5175781250	21355.0195312500	19219.5175781250	9219.5175781250	1963.2000000000	4.6961682855	19219.5175781250
0.6717177177	10449.8710937500	8.5967130661	21645.2500000000	0.8590436307	19480.7250000000	21645.2500000000	19480.7250000000	9480.7250000000	1963.2000000000	4.8292201508	19480.7250000000
0.6717755785	10472.2392578125	8.5849771500	21871.8906250000	0.8495709642	19684.7015625000	21871.8906250000	19684.7015625000	9684.7015625000	1963.2000000000	4.9331201928	19684.7015625000
0.6718334632	10544.9960937500	8.5637159348	22048.0371093750	0.8465977911	19843.2333984375	22048.0371093750	19843.2333984375	9843.2333984375	1963.2000000000	5.0138719430	19843.2333984375
0.6718913435	10602.3818359375	8.5735158920	22148.3300781250	0.8408840330	19933.4970703125	22148.3300781250	19933.4970703125	9933.4970703125	1963.2000000000	5.0598497709	19933.4970703125
0.6719491923	10451.0849609375	8.5636110306	22219.8378906250	0.8320014098	19997.8541015625	22219.8378906250	19997.8541015625	9997.8541015625	1963.2000000000	5.0926314698	19997.8541015625
0.6720070860	10304.7109375000	8.5776824951	22315.0449218750	0.8233599260	20083.5404296875	22315.0449218750	20083.5404296875	10083.5404296875	1963.2000000000	5.1362777250	20083.5404296875
0.6720649265	10202.3593750000	8.5809803009	22396.7382812500	0.8223531878	20157.0644531250	22396.7382812500	20157.0644531250	10157.0644531250	1963.2000000000	5.1737288372	20157.0644531250
0.6721228013	10154.2382812500	8.5912075043	22466.9218750000	0.8163830266	20220.2296875000	22466.9218750000	20220.2296875000	10220.2296875000	1963.2000000000	5.2059034676	20220.2296875000
0.6721806717	9985.1933593750	8.6053047180	22451.2343750000	0.8117090992	20206.1109375000	22451.2343750000	20206.1109375000	10206.1109375000	1963.2000000000	5.1987117652	20206.1109375000
0.6722385386	9902.4794921875	8.6058502197	22219.0839843750	0.8193453106	19997.1755859375	22219.0839843750	19997.1755859375	9997.1755859375	1963.2000000000	5.0922858527	19997.1755859375
0.6722963114	9930.0068359375	8.5931367874	21503.0390625000	0.8453637279	19352.7351562500	21503.0390625000	19352.7351562500	9352.7351562500	1963.2000000000	4.7640256501	19352.7351562500
0.6723542712	10008.7480468750	6.5690350533	21188.3125000000	0.8586010075	19069.4812500000	21188.3125000000	19069.4812500000	9069.4812500000	1963.2000000000	4.6197439130	19069.4812500000
0.6724121695	10034.3662109375	2.5860576630	21066.6347656250	0.8677195891	18959.9712890625	21066.6347656250	18959.9712890625	8959.9712890625	1963.2000000000	4.5639625556	18959.9712890625
0.6724700286	10037.0175781250	1.1140117645	21073.8828125000	0.8608440519	18966.4945312500	21073.8828125000	18966.4945312500	8966.4945312500	1963.2000000000	4.5672853154	18966.4945312500
0.6725278779	9981.4208984375	0.6050324440	21124.5390625000	0.8639209156	19012.0851562500	21124.5390625000	19012.0851562500	9012.0851562500	1963.2000000000	4.5905079239	19012.0851562500
0.6725857534	9992.5214843750	0.3983838558	21169.0449218750	0.8557930498	19052.1404296875	21169.0449218750	19052.1404296875	9052.1404296875	1963.2000000000	4.6109109768	19052.1404296875
0.6726436048	9978.3583984375	0.2974556684	21182.8769531250	0.8646391580	19064.5892578125	21182.8769531250	19064.5892578125	9064.5892578125	1963.2000000000	4.6172520669	19064.5892578125
0.6727015122	9966.0527343750	0.2381454855	21213.9492187500	0.8558236222	19092.5542968750	21213.9492187500	19092.5542968750	9092.5542968750	1963.2000000000	4.6314966875	19092.5542968750
0.6727593418	10018.5878906250	0.2000018060	21219.0625000000	0.8587024379	19097.1562500000	21219.0625000000	19097.1562500000	9097.1562500000	1963.2000000000	4.6338407956	19097.1562500000
0.6728172407	9951.8017578125	0.1694088876	21211.1816406250	0.8508527075	19090.0634765625	21211.1816406250	19090.0634765625	9090.0634765625	1963.2000000000	4.6302279322	19090.0634765625
0.6728750918	9917.0634765625	0.1515503377	21197.2148437500	0.8605268619	19077.4933593750	21197.2148437500	19077.4933593750	9077.4933593750	1963.2000000000	4.6238250608	19077.4933593750
0.6729329605	9948.7011718750	0.1362380683	21172.4296875000	0.8574215397	19055.1867187500	21172.4296875000	19055.1867187500	9055.1867187500	1963.2000000000	4.6124626725	19055.1867187500
0.6729908504	9926.2763671875	0.1207030192	21187.3398437500	0.8520184661	19068.6058593750	21187.3398437500	19068.6058593750	9068.6058593750	1963.2000000000	4.6192980131	19068.6058593750
0.6730486781	9750.7988281250	0.1151814461	21164.8085937500	0.8548224707	19048.3277343750	21164.8085937500	19048.3277343750	9048.3277343750	1963.2000000000	4.6089688949	19048.3277343750
0.6731065745	9562.5605468750	0.0999143422	21179.2519531250	0.8378871842	19061.3267578125	21179.2519531250	19061.3267578125	9061.3267578125	1963.2000000000	4.6155902393	19061.3267578125
0.6731644402	9476.2841796875	0.0970466807	21168.8203125000	0.8401123488	19051.9382812500	21168.8203125000	19051.9382812500	9051.9382812500	1963.2000000000	4.6108080080	19051.9382812500
0.6732223416	9610.9775390625	0.0909831896	21184.1582031250	0.8517122337	19065.7423828125	21184.1582031250	19065.7423828125	9065.7423828125	1963.2000000000	4.6178394370	19065.7423828125
0.6732802113	9744.0742187500	0.0855286121	21200.6054687500	0.8505205847	19080.5449218750	21200.6054687500	19080.5449218750	9080.5449218750	1963.2000000000	4.6253794427	19080.5449218750
0.6733380420	9754.7802734375	0.0810269043	21200.3906250000	0.8495680207	19080.3515625000	21200.3906250000	19080.3515625000	9080.3515625000	1963.2000000000	4.6252809507	19080.3515625000
0.6733959328	9909.6093750000	0.0784460083	21166.6894531250	0.8578900565	19050.0205078125	21166.6894531250	19050.0205078125	9050.0205078125	1963.2000000000	4.6098311470	19050.0205078125
0.6734537836	10029.4707031250	0.0738901123	21338.2773437500	0.8580784758	19204.4496093750	21338.2773437500	19204.4496093750	9204.4496093750	1963.2000000000	4.6884930773	19204.4496093750
0.6735116651	10068.1982421875	0.0746472999	21840.6796875000	0.8334179786	19656.6117187500	21840.6796875000	19656.6117187500	9656.6117187500	1963.2000000000	4.9188120002	19656.6117187500
0.6735695521	9814.7617187500	0.0676143765	22211.8789062500	0.8138521050	19990.6910156250	22211.8789062500	19990.6910156250	9990.6910156250	1963.2000000000	5.0889827912	19990.6910156250
0.6736274060	9673.7041015625	0.0661647394	22423.1367187500	0.8000344131	20180.8230468750	22423.1367187500	20180.8230468750	10180.8230468750	1963.2000000000	5.1858308103	20180.8230468750
0.6736852697	9590.8115234375	0.0656401291	22526.6523437500	0.7981494775	20273.9871093750	22526.6523437500	20273.9871093750	10273.9871093750	1963.2000000000	5.2332860174	20273.9871093750
0.6737431306	9498.5341796875	0.0613702461	22550.6464843750	0.7964320649	20295.5818359375	22550.6464843750	20295.5818359375	10295.5818359375	1963.2000000000	5.2442857763	20295.5818359375
0.6738010191	9609.3222656250	0.0583844110	22501.8671875000	0.8003002033	20251.6804687500	22501.8671875000	20251.6804687500	10251.6804687500	1963.2000000000	5.2219236292	20251.6804687500
0.6738588823	9590.9765625000	0.0560104996	22513.3085937500	0.7950473476	20261.9777343750	22513.3085937500	20261.9777343750	10261.9777343750	1963.2000000000	5.2271687726	20261.9777343750
0.6739167381	9508.2539062500	0.0603225306	22513.3085937500	0.7969389064	20261.9777343750	22513.3085937500	20261.9777343750	10261.9777343750	1963.2000000000	5.2271687726	20261.9777343750
0.6739746092	9507.5058593750	0.0617684051	22437.4531250000	0.7969041657	20193.7078125000	22437.4531250000	20193.7078125000	10193.7078125000	1963.2000000000	5.1923939550	20193.7078125000
0.6740325106	9483.8623046875	0.0557493232	22414.5898437500	0.7986659170	20173.1308593750	22414.5898437500	20173.1308593750	10173.1308593750	1963.2000000000	5.1819126219	20173.1308593750
0.6740903553	9443.5263671875	0.0558765233	22374.3867187500	0.7980691414	20136.9480468750	22374.3867187500	20136.9480468750	10136.9480468750	1963.2000000000	5.1634820940	20136.9480468750
0.6741482178	9461.4941406250	0.0488428473	22351.3945312500	0.8003128971	20116.2550781250	22351.3945312500	20116.2550781250	10116.2550781250	1963.2000000000	5.1529416657	20116.2550781250
0.6742060946	9372.8769531250	0.0504686087	22316.9453125000	0.8016313705	20085.2507812500	22316.9453125000	20085.2507812500	10085.2507812500	1963.2000000000	5.1371489310	20085.2507812500
0.6742639784	9427.3701171875	0.0483483449	22303.2773437500	0.8021820393	20072.9496093750	22303.2773437500	20072.9496093750	10072.9496093750	1963.2000000000	5.1308830529	20072.9496093750
0.6743218366	9455.4208984375	0.0470657982	22324.1503906250	0.7991356716	20091.7353515625	22324.1503906250	20091.7353515625	10091.7353515625	1963.2000000000	5.1404519924	20091.7353515625
0.6743796850	9341.9570312500	0.0455725081	22295.1914062500	0.7997299789	20065.6722656250	22295.1914062500	20065.6722656250	10065.6722656250	1963.2000000000	5.1271761744	20065.6722656250
0.6744375829	9337.3232421875	0.0468377434	22275.6464843750	0.8034230430	20048.0818359375	22275.6464843750	20048.0818359375	10048.0818359375	1963.2000000000	5.1182160941	20048.0818359375
0.6744954442	9315.0009765625	0.0459368005	22253.2539062500	0.8011064740	20027.9285156250	22253.2539062500	20027.9285156250	10027.9285156250	1963.2000000000	5.1079505479	20027.9285156250
0.6745533152	9336.5957031250	0.0460429266	22241.9570312500	0.7964175425	20017.7613281250	22241.9570312500	20017.7613281250	10017.7613281250	1963.2000000000	5.1027716627	20017.7613281250
0.6746111594	9471.0957031250	0.0436946042	22217.2910156250	0.8030551929	19995.5619140625	22217.2910156250	19995.5619140625	9995.5619140625	1963.2000000000	5.0914638927	19995.5619140625
0.6746690511	9459.4785156250	0.0416721851	22212.3847656250	0.8068544427	19991.1462890625	22212.3847656250	19991.1462890625	9991.1462890625	1963.2000000000	5.0892146949	19991.1462890625
0.6747269168	9391.1630859375	0.0399809405	22184.2832031250	0.8005518321	19965.8548828125	22184.2832031250	19965.8548828125	9965.8548828125	1963.2000000000	5.0763319493	19965.8548828125
0.6747847932	9445.9130859375	0.0422306657	22270.2949218750	0.8046300210	20043.2654296875	22270.2949218750	20043.2654296875	10043.2654296875	1963.2000000000	5.1157627494	20043.2654296875
0.6748426607	9433.4189453125	0.0424225926	22360.1269531250	0.8035493525	20124.1142578125	22360.1269531250	20124.1142578125	10124.1142578125	1963.2000000000	5.1569449153	20124.1142578125
0.6749005281	9394.7294921875	0.0399974994	22423.9160156250	0.7940382480	20181.5244140625	22423.9160156250	20181.5244140625	10181.5244140625	1963.2000000000	5.1861880675	20181.5244140625
0.6749584028	9402.1289062500	0.0648438036	22424.3398437500	0.7928309501	20181.9058593750	22424.3398437500	20181.9058593750	10181.9058593750	1963.2000000000	5.1863823652	20181.9058593750
0.6750162891	9428.9150390625	0.0794606060	22367.3593750000	0.7974958654	20130.6234375000	22367.3593750000	20130.6234375000	10130.6234375000	1963.2000000000	5.1602605122	20130.6234375000
0.6750741498	9406.3662109375	0.0700492561	22355.2285156250	0.8047440245	20119.7056640625	22355.2285156250	20119.7056640625	10119.7056640625	1963.2000000000	5.1546992991	20119.7056640625
0.6751320102	9470.7822265625	0.0561106056	22318.6347656250	0.8052103372	20086.7712890625	22318.6347656250	20086.7712890625	10086.7712890625	1963.2000000000	5.1379234357	20086.7712890625
0.6751898792	9578.4101562500	0.0487766117	22311.8574218750	0.8018479641	20080.6716796875	22311.8574218750	20080.6716796875	10080.6716796875	1963.2000000000	5.1348164628	20080.6716796875
0.6752477397	9558.1181640625	0.0472012796	22638.9257812500	0.7928937708	20375.0332031250	22638.9257812500	20375.0332031250	10375.0332031250	1963.2000000000	5.2847561141	20375.0332031250
0.6753055997	9640.4296875000	0.0404400676	22731.6015625000	0.7953178836	20458.4414062500	22731.6015625000	20458.4414062500	10458.4414062500	1963.2000000000	5.3272419551	20458.4414062500
0.6753634671	9666.2529296875	0.0459887311	22710.0937500000	0.7984615410	20439.0843750000	22710.0937500000	20439.0843750000	10439.0843750000	1963.2000000000	5.3173820166	20439.0843750000
0.6754213543	9786.8378906250	0.0446971543	22681.5019531250	0.7997614742	20413.3517578125	22681.5019531250	20413.3517578125	10413.3517578125	1963.2000000000	5.3042745303	20413.3517578125
0.6754792312	9822.7333984375	0.0432076268	22624.7246093750	0.7992735092	20362.2521484375	22624.7246093750	20362.2521484375	10362.2521484375	1963.2000000000	5.2782457969	20362.2521484375
0.6755370956	9720.5234375000	0.0421742126	22599.4082031250	0.7990577085	20339.4673828125	22599.4082031250	20339.4673828125	10339.4673828125	1963.2000000000	5.2666398649	20339.4673828125
0.6755949523	9518.3076171875	0.0398048162	22561.7109375000	0.7922573996	20305.5398437500	22561.7109375000	20305.5398437500	10305.5398437500	1963.2000000000	5.2493581111	20305.5398437500
0.6756528288	9420.6689453125	0.0380465873	22561.7109375000	0.7943183610	20305.5398437500	22561.7109375000	20305.5398437500	10305.5398437500	1963.2000000000	5.2493581111	20305.5398437500
0.6757107029	9342.0781250000	0.0366518945	22530.2382812500	0.7905469168	20277.2144531250	22530.2382812500	20277.2144531250	10277.2144531250	1963.2000000000	5.2349299374	20277.2144531250
0.6757685879	9318.5742187500	0.0335780010	22463.9492187500	0.7905078205	20217.5542968750	22463.9492187500	20217.5542968750	10217.5542968750	1963.2000000000	5.2045406973	20217.5542968750
0.6758264427	9309.7832031250	0.0354792364	22419.6777343750	0.7949372759	20177.7099609375	22419.6777343750	20177.7099609375	10177.7099609375	1963.2000000000	5.1842450901	20177.7099609375
0.6758842885	9177.7880859375	0.0380036831	22383.0390625000	0.7913519525	20144.7351562500	22383.0390625000	20144.7351562500	10144.7351562500	1963.2000000000	5.1674486330	20144.7351562500
0.6759421732	9123.1220703125	0.0366902798	22348.8437500000	0.7904568469	20113.9593750000	22348.8437500000	20113.9593750000	10113.9593750000	1963.2000000000	5.1517722978	20113.9593750000
0.6760000508	9163.5449218750	0.0357840694	22347.6816406250	0.7890226071	20112.9134765625	22347.6816406250	20112.9134765625	10112.9134765625	1963.2000000000	5.1512395459	20112.9134765625
0.6760579081	9261.1601562500	0.0347762443	22332.0312500000	0.7953235557	20098.8281250000	22332.0312500000	20098.8281250000	10098.8281250000	1963.2000000000	5.1440648558	20098.8281250000
0.6761157779	9279.7285156250	0.0348838791	22279.4414062500	0.7954437007	20051.4972656250	22279.4414062500	20051.4972656250	10051.4972656250	1963.2000000000	5.1199558199	20051.4972656250
0.6761736649	9260.9736328125	0.0338564850	22280.2792968750	0.7994107057	20052.2513671875	22280.2792968750	20052.2513671875	10052.2513671875	1963.2000000000	5.1203399385	20052.2513671875
0.6762315167	9131.7958984375	0.0335584283	22284.1289062500	0.7859525952	20055.7160156250	22284.1289062500	20055.7160156250	10055.7160156250	1963.2000000000	5.1221047349	20055.7160156250
0.6762894019	9172.5039062500	0.0335509032	22237.2988281250	0.7940174817	20013.5689453125	22237.2988281250	20013.5689453125	10013.5689453125	1963.2000000000	5.1006361783	20013.5689453125
0.6763472723	9260.4267578125	0.0332934894	22243.8925781250	0.7994215052	20019.5033203125	22243.8925781250	20019.5033203125	10019.5033203125	1963.2000000000	5.1036589855	20019.5033203125
0.6764051378	9127.7519531250	0.0336449854	22227.5488281250	0.7885814847	20004.7939453125	22227.5488281250	20004.7939453125	10004.7939453125	1963.2000000000	5.0961664351	20004.7939453125
0.6764629932	8883.5878906250	0.0385192595	22190.3671875000	0.7847374050	19971.3304687500	22190.3671875000	19971.3304687500	9971.3304687500	1963.2000000000	5.0791210619	19971.3304687500
0.6765208523	7421.5102539063	0.0460549667	22173.3300781250	0.7160881105	19955.9970703125	22173.3300781250	19955.9970703125	9955.9970703125	1963.2000000000	5.0713106511	19955.9970703125
0.6765787449	5450.0175781250	0.0512114912	21599.6953125000	0.7202897183	19439.7257812500	21599.6953125000	19439.7257812500	9439.7257812500	1963.2000000000	4.8083362781	19439.7257812500
0.6766365999	6093.3588867188	0.0473299846	20834.8183593750	0.7764613076	18751.3365234375	20834.8183593750	18751.3365234375	8751.3365234375	1963.2000000000	4.4576897532	18751.3365234375
0.6766944832	8262.8046875000	0.0438451357	12883.0429687500	1.5153236702	11594.7386718750	12883.0429687500	11594.7386718750	1594.7386718750	1963.2000000000	0.8123159494	11594.7386718750
0.6767523417	9497.6484375000	0.0493275672	13268.1474609375	1.5077569032	11941.3327148438	13268.1474609375	11941.3327148438	1941.3327148438	1963.2000000000	0.9888614073	11941.3327148438
0.6768102202	9474.9443359375	0.0770076662	21040.0390625000	0.8398084019	18936.0351562500	21040.0390625000	18936.0351562500	8936.0351562500	1963.2000000000	4.5517701489	18936.0351562500
0.6768681001	9281.7246093750	0.1398418397	21838.2187500000	0.8089287729	19654.3968750000	21838.2187500000	19654.3968750000	9654.3968750000	1963.2000000000	4.9176838198	19654.3968750000
0.6769259511	9131.6201171875	0.2233043909	21635.8847656250	0.8164264887	19472.2962890625	21635.8847656250	19472.2962890625	9472.2962890625	1963.2000000000	4.8249267976	19472.2962890625
0.6769838200	9214.6035156250	0.3074977696	21608.7949218750	0.8226024399	19447.9154296875	21608.7949218750	19447.9154296875	9447.9154296875	1963.2000000000	4.8125078595	19447.9154296875
0.6770416836	9242.9550781250	0.4085764885	21937.3339843750	0.8081226994	19743.6005859375	21937.3339843750	19743.6005859375	9743.6005859375	1963.2000000000	4.9631217329	19743.6005859375
0.6770995565	9357.9238281250	0.5029730201	22312.6503906250	0.7973728712	20081.3853515625	22312.6503906250	20081.3853515625	10081.3853515625	1963.2000000000	5.1351799876	20081.3853515625
0.6771574175	9346.7685546875	0.6042436957	22575.7792968750	0.7875951465	20318.2013671875	22575.7792968750	20318.2013671875	10318.2013671875	1963.2000000000	5.2558075424	20318.2013671875
0.6772153210	9473.0214843750	0.7244032621	22766.8750000000	0.7866501861	20490.1875000000	22766.8750000000	20490.1875000000	10490.1875000000	1963.2000000000	5.3434125407	20490.1875000000
0.6772731667	9415.8232421875	0.8484767079	22874.1953125000	0.7834123033	20586.7757812500	22874.1953125000	20586.7757812500	10586.7757812500	1963.2000000000	5.3926119505	20586.7757812500
0.6773310499	9527.9794921875	0.9959257841	22988.6503906250	0.7805324402	20689.7853515625	22988.6503906250	20689.7853515625	10689.7853515625	1963.2000000000	5.4450821880	20689.7853515625
0.6773889206	9587.1142578125	1.1226463318	22988.6503906250	0.7793893843	20689.7853515625	22988.6503906250	20689.7853515625	10689.7853515625	1963.2000000000	5.4450821880	20689.7853515625
0.6774467626	9297.2529296875	1.2601488829	23228.5566406250	0.7640851871	20905.7009765625	23228.5566406250	20905.7009765625	10905.7009765625	1963.2000000000	5.5550636596	20905.7009765625
0.6775046557	9108.6152343750	1.4252141714	23273.9667968750	0.7679043768	20946.5701171875	23273.9667968750	20946.5701171875	10946.5701171875	1963.2000000000	5.5758812740	20946.5701171875
0.6775625188	9368.0634765625	1.5880604982	23341.7070312500	0.7693211585	21007.5363281250	23341.7070312500	21007.5363281250	11007.5363281250	1963.2000000000	5.6069357825	21007.5363281250
0.6776203921	9161.0771484375	1.7347900867	23451.9882812500	0.7536588056	21106.7894531250	23451.9882812500	21106.7894531250	11106.7894531250	1963.2000000000	5.6574925902	21106.7894531250
0.6776782506	8921.4531250000	1.8864916563	23441.5410156250	0.7524669640	21097.3869140625	23441.5410156250	21097.3869140625	11097.3869140625	1963.2000000000	5.6527031958	21097.3869140625
0.6777361231	8911.6210937500	2.0360338688	23352.7734375000	0.7538839003	21017.4960937500	23352.7734375000	21017.4960937500	11017.4960937500	1963.2000000000	5.6120090127	21017.4960937500
0.6777939943	8859.3828125000	2.1694772243	23309.5605468750	0.7545346598	20978.6044921875	23309.5605468750	20978.6044921875	10978.6044921875	1963.2000000000	5.5921987022	20978.6044921875
0.6778518342	8854.6259765625	2.2929899693	23322.2656250000	0.7529682237	20990.0390625000	23322.2656250000	20990.0390625000	10990.0390625000	1963.2000000000	5.5980231573	20990.0390625000
0.6779097348	8719.3349609375	2.4552516937	23272.1328125000	0.7556844367	20944.9195312500	23272.1328125000	20944.9195312500	10944.9195312500	1963.2000000000	5.5750405110	20944.9195312500
0.6779676015	8915.4023437500	2.5936474800	23265.9296875000	0.7556645527	20939.3367187500	23265.9296875000	20939.3367187500	10939.3367187500	1963.2000000000	5.5721967801	20939.3367187500
0.6780254760	8960.8691406250	2.7218215466	23212.4433593750	0.7566541408	20891.1990234375	23212.4433593750	20891.1990234375	10891.1990234375	1963.2000000000	5.5476767642	20891.1990234375
0.6780833366	9053.5273437500	2.8842678070	23225.0449218750	0.7580169865	20902.5404296875	23225.0449218750	20902.5404296875	10902.5404296875	1963.2000000000	5.5534537641	20902.5404296875
0.6781412120	8727.7412109375	3.0226638317	23152.7441406250	0.7548445558	20837.4697265625	23152.7441406250	20837.4697265625	10837.4697265625	1963.2000000000	5.5203085404	20837.4697265625
0.6781990824	8795.4208984375	3.1697964668	23120.7871093750	0.7607828964	20808.7083984375	23120.7871093750	20808.7083984375	10808.7083984375	1963.2000000000	5.5056583122	20808.7083984375
0.6782569565	8990.8271484375	3.2861111164	23087.1406250000	0.7675918431	20778.4265625000	23087.1406250000	20778.4265625000	10778.4265625000	1963.2000000000	5.4902335791	20778.4265625000
0.6783148338	9085.9013671875	3.4166991711	23085.8222656250	0.7620504364	20777.2400390625	23085.8222656250	20777.2400390625	10777.2400390625	1963.2000000000	5.4896291968	19681.1509475708
0.6783726819	8994.7470703125	3.4884066582	23073.1640625000	0.7628250238	20765.8476562500	23073.1640625000	20765.8476562500	10765.8476562500	1963.2000000000	5.4838262308	20765.8476562500
0.6784305574	8908.5107421875	3.4556057453	23037.2929687500	0.7613224981	20733.5636718750	23037.2929687500	20733.5636718750	10733.5636718750	1963.2000000000	5.4673816585	20733.5636718750
0.6784884251	8851.2832031250	3.3223218918	23391.5253906250	0.7500323643	21052.3728515625	23391.5253906250	21052.3728515625	11052.3728515625	1963.2000000000	5.6297742724	21052.3728515625
0.6785462985	8772.8769531250	3.1835782528	23708.1464843750	0.7436571049	21337.3318359375	23708.1464843750	21337.3318359375	11337.3318359375	1963.2000000000	5.7749245293	21337.3318359375
0.6786041472	8701.9648437500	3.0561721325	23742.1152343750	0.7426604849	21367.9037109375	23742.1152343750	21367.9037109375	11367.9037109375	1963.2000000000	5.7904970003	21367.9037109375
0.6786620234	8660.7763671875	2.9958415031	23712.9726562500	0.7416680061	21341.6753906250	23712.9726562500	21341.6753906250	11341.6753906250	1963.2000000000	5.7771370164	10639.6029571533
0.6787199135	8902.7119140625	2.8852069378	23700.3828125000	0.7490370263	21330.3445312500	23700.3828125000	21330.3445312500	11330.3445312500	1963.2000000000	5.7713653888	20418.3600921631
0.6787777662	8943.7783203125	2.8451743126	23648.4765625000	0.7438811205	21283.6289062500	23648.4765625000	21283.6289062500	11283.6289062500	1963.2000000000	5.7475697363	21283.6289062500
0.6788356412	8619.8964843750	2.9485242367	23583.2421875000	0.7399373168	21224.9179687500	23583.2421875000	21224.9179687500	11224.9179687500	1963.2000000000	5.7176640020	21224.9179687500
0.6788934934	8371.1718750000	3.1220099926	23015.5781250000	0.7521918076	20714.0203125000	23015.5781250000	20714.0203125000	10714.0203125000	1963.2000000000	5.4574268095	20714.0203125000
0.6789513644	8712.5166015625	3.2498180866	22219.6269531250	0.7869015914	19997.6642578125	22219.6269531250	19997.6642578125	9997.6642578125	1963.2000000000	5.0925347686	19997.6642578125
0.6790092439	8941.0419921875	3.3700225353	21891.5917968750	0.7982165842	19702.4326171875	21891.5917968750	19702.4326171875	9702.4326171875	1963.2000000000	4.9421519036	19702.4326171875
0.6790671032	9140.8505859375	3.4941358566	21854.3085937500	0.8069525321	19668.8777343750	21854.3085937500	19668.8777343750	9668.8777343750	1963.2000000000	4.9250599706	19668.8777343750
0.6791249994	9238.1289062500	3.6811685562	21883.4824218750	0.8045274851	19695.1341796875	21883.4824218750	19695.1341796875	9695.1341796875	1963.2000000000	4.9384342806	19695.1341796875
0.6791828413	9342.1318359375	3.8638329506	22082.0351562500	0.8044481529	19873.8316406250	22082.0351562500	19873.8316406250	9873.8316406250	1963.2000000000	5.0294578447	19873.8316406250
0.6792407062	9293.2968750000	4.0150084496	22370.3750000000	0.7939216387	20133.3375000000	22370.3750000000	20133.3375000000	10133.3375000000	1963.2000000000	5.1616429808	20133.3375000000
0.6792986010	9377.8281250000	4.1407394409	22428.3593750000	0.7915002097	20185.5234375000	22428.3593750000	20185.5234375000	10185.5234375000	1963.2000000000	5.1882250599	20185.5234375000
0.6793564655	9382.8632812500	4.2732448578	22450.1855468750	0.7957989643	20205.1669921875	22450.1855468750	20205.1669921875	10205.1669921875	1963.2000000000	5.1982309455	20205.1669921875
0.6794143362	9301.6855468750	4.3819322586	22459.5058593750	0.7930445827	20213.5552734375	22459.5058593750	20213.5552734375	10213.5552734375	1963.2000000000	5.2025037049	20213.5552734375
0.6794722265	9343.1816406250	4.5142140388	22456.5566406250	0.7933519393	20210.9009765625	22456.5566406250	20210.9009765625	10210.9009765625	1963.2000000000	5.2011516792	20210.9009765625
0.6795300681	9378.6630859375	4.6722440720	22426.4121093750	0.7906467940	20183.7708984375	22426.4121093750	20183.7708984375	10183.7708984375	1963.2000000000	5.1873323647	20183.7708984375
0.6795879225	9311.7470703125	4.7974987030	22427.5937500000	0.7913281071	20184.8343750000	22427.5937500000	20184.8343750000	10184.8343750000	1963.2000000000	5.1878740704	20184.8343750000
0.6796457904	9338.7509765625	4.9059948921	22418.4511718750	0.7894482208	20176.6060546875	22418.4511718750	20176.6060546875	10176.6060546875	1963.2000000000	5.1836827907	20176.6060546875
0.6797036617	9349.3613281250	5.0232672691	22417.7792968750	0.7956761244	20176.0013671875	22417.7792968750	20176.0013671875	10176.0013671875	1963.2000000000	5.1833747795	20176.0013671875
0.6797615587	9351.0947265625	5.1363205910	22379.9140625000	0.7935988547	20141.9226562500	22379.9140625000	20141.9226562500	10141.9226562500	1963.2000000000	5.1660160229	20141.9226562500
0.6798194038	9300.5507812500	5.2498307228	22368.8437500000	0.7916172214	20131.9593750000	22368.8437500000	20131.9593750000	10131.9593750000	1963.2000000000	5.1609410019	20131.9593750000
0.6798772892	9289.6083984375	5.3160252571	22336.1230468750	0.7951790645	20102.5107421875	22336.1230468750	20102.5107421875	10102.5107421875	1963.2000000000	5.1459406796	20102.5107421875
0.6799351484	9274.1914062500	5.4056663513	22330.2910156250	0.7942680753	20097.2619140625	22330.2910156250	20097.2619140625	10097.2619140625	1963.2000000000	5.1432670711	20097.2619140625
0.6799930127	9320.6826171875	5.5055794716	22320.1230468750	0.8013719974	20088.1107421875	22320.1230468750	20088.1107421875	10088.1107421875	1963.2000000000	5.1386057163	20088.1107421875
0.6800508888	9177.5000000000	5.5941052437	22258.7910156250	0.7944236719	20032.9119140625	22258.7910156250	20032.9119140625	10032.9119140625	1963.2000000000	5.1104889538	20032.9119140625
0.6801087454	9291.4824218750	5.7018542290	22254.4589843750	0.7974086637	20029.0130859375	22254.4589843750	20029.0130859375	10029.0130859375	1963.2000000000	5.1085029981	20029.0130859375
0.6801666290	9283.6933593750	5.8090429306	22229.1953125000	0.7931165670	20006.2757812500	22229.1953125000	20006.2757812500	10006.2757812500	1963.2000000000	5.0969212415	20006.2757812500
0.6802245158	9288.2197265625	5.8966336250	22221.7558593750	0.7995193978	19999.5802734375	22221.7558593750	19999.5802734375	9999.5802734375	1963.2000000000	5.0935107342	19999.5802734375
0.6802823678	9290.7607421875	5.9730138779	22201.9257812500	0.7955058861	19981.7332031250	22201.9257812500	19981.7332031250	9981.7332031250	1963.2000000000	5.0844199282	19981.7332031250
0.6803402631	9220.6445312500	6.0408501625	22207.4843750000	0.7981104612	19986.7359375000	22207.4843750000	19986.7359375000	9986.7359375000	1963.2000000000	5.0869681833	19986.7359375000
0.6803981233	9275.6171875000	6.1236624718	22164.0664062500	0.7989382425	19947.6597656250	22164.0664062500	19947.6597656250	9947.6597656250	1963.2000000000	5.0670638578	19947.6597656250
0.6804560039	9314.0908203125	6.1798782349	22167.9628906250	0.7989863338	19951.1666015625	22167.9628906250	19951.1666015625	9951.1666015625	1963.2000000000	5.0688501434	19951.1666015625
0.6805138305	9319.4511718750	6.2203240395	22136.1718750000	0.8027802276	19922.5546875000	22136.1718750000	19922.5546875000	9922.5546875000	1963.2000000000	5.0542760226	19922.5546875000
0.6805717293	9325.3310546875	6.2792234421	22133.9257812500	0.7994129043	19920.5332031250	22133.9257812500	19920.5332031250	9920.5332031250	1963.2000000000	5.0532463341	19920.5332031250
0.6806295865	9311.5937500000	6.3570246696	22155.5488281250	0.8048215745	19939.9939453125	22155.5488281250	19939.9939453125	9939.9939453125	1963.2000000000	5.0631591001	19939.9939453125
0.6806874537	9272.1884765625	6.4172863960	22097.0722656250	0.8048617682	19887.3650390625	22097.0722656250	19887.3650390625	9887.3650390625	1963.2000000000	5.0363513850	19887.3650390625
0.6807453144	9267.6025390625	6.4932107925	22067.6308593750	0.8050317744	19860.8677734375	22067.6308593750	19860.8677734375	9860.8677734375	1963.2000000000	5.0228544078	19860.8677734375
0.6808032058	9291.8759765625	6.5271387100	22074.8203125000	0.8011070645	19867.3382812500	22074.8203125000	19867.3382812500	9867.3382812500	1963.2000000000	5.0261503063	19867.3382812500
0.6808610706	9293.9150390625	6.5783863068	22074.8203125000	0.8067632008	19867.3382812500	22074.8203125000	19867.3382812500	9867.3382812500	1963.2000000000	5.0261503063	19867.3382812500
0.6809189360	9300.2685546875	6.6105208397	22050.3964843750	0.8036450209	19845.3568359375	22050.3964843750	19845.3568359375	9845.3568359375	1963.2000000000	5.0149535635	19845.3568359375
0.6809768069	9201.9404296875	6.7060589790	22008.8671875000	0.8052619444	19807.9804687500	22008.8671875000	19807.9804687500	9807.9804687500	1963.2000000000	4.9959150717	19807.9804687500
0.6810346809	9283.4755859375	6.7830543518	22029.4980468750	0.8040121507	19826.5482421875	22029.4980468750	19826.5482421875	9826.5482421875	1963.2000000000	5.0053729840	19826.5482421875
0.6810925334	9258.4785156250	6.8065958023	22004.3046875000	0.8008016289	19803.8742187500	22004.3046875000	19803.8742187500	9803.8742187500	1963.2000000000	4.9938234611	19803.8742187500
0.6811504358	9243.7060546875	6.8059687614	21949.6250000000	0.8048517016	19754.6625000000	21949.6250000000	19754.6625000000	9754.6625000000	1963.2000000000	4.9687563672	19754.6625000000
0.6812082701	9247.5322265625	6.8469858170	21943.7109375000	0.8059355816	19749.3398437500	21943.7109375000	19749.3398437500	9749.3398437500	1963.2000000000	4.9660451527	19749.3398437500
0.6812661542	9239.6767578125	6.9168972969	21952.8183593750	0.8029253777	19757.5365234375	21952.8183593750	19757.5365234375	9757.5365234375	1963.2000000000	4.9702203155	19757.5365234375
